 SiO2 Density=2.65
 Energy(eV), Delta, Beta
  1000.  0.000538840599  8.38538472E-05
  1023.29303  0.000514795771  7.6999313E-05
  1047.12854  0.000491741521  7.0714319E-05
  1071.51929  0.000469589926  6.49079229E-05
  1096.47827  0.000448306149  5.95981001E-05
  1122.01843  0.000427921012  5.47739983E-05
  1148.15369  0.000408418971  5.03487317E-05
  1174.89758  0.000389755063  4.62802927E-05
  1202.2644  0.000371888658  4.25398175E-05
  1230.2688  0.000354793243  3.91003741E-05
  1258.92542  0.000338434038  3.59296282E-05
  1288.24963  0.000322773965  3.30038456E-05
  1318.25671  0.000307773822  3.03100842E-05
  1348.96289  0.000293405785  2.78354928E-05
  1380.38428  0.000279651227  2.55632021E-05
  1412.5376  0.000266468764  2.34750805E-05
  1445.43982  0.000253841979  2.15568907E-05
  1479.1084  0.000241733287  1.97923946E-05
  1513.56128  0.000230110672  1.81589603E-05
  1548.81665  0.000218924368  1.66509999E-05
  1584.89319  0.000208126934  1.52678003E-05
  1621.81006  0.000197692018  1.39991798E-05
  1659.58691  0.000187501515  1.28360007E-05
  1698.24377  0.000177499125  1.17693025E-05
  1737.80078  0.000167373859  1.07888636E-05
  1778.27942  0.000156596827  9.8829305E-06
  1819.70081  0.000136735049  9.05079196E-06
  1862.08716  0.000137852039  2.79745054E-05
  1905.46069  0.000138496951  2.58176606E-05
  1949.8446  0.00013561931  2.38271496E-05
  1995.26233  0.000131565219  2.19894628E-05
  2041.73804  0.00012714116  2.02902356E-05
  2089.29614  0.000122551908  1.87146416E-05
  2137.96216  0.000117924035  1.72460968E-05
  2187.76172  0.000113329537  1.58881085E-05
  2238.72119  0.000108800479  1.4631597E-05
  2290.86792  0.000104378421  1.34709862E-05
  2344.229  0.000100067198  1.23980508E-05
  2398.83301  9.58875462E-05  1.1407391E-05
  2454.70898  9.18396472E-05  1.04929377E-05
  2511.88672  8.79299332E-05  9.64903211E-06
  2570.396  8.41596266E-05  8.8710467E-06
  2630.26807  8.05267409E-05  8.15328622E-06
  2691.53491  7.70325278E-05  7.49228957E-06
  2754.22876  7.36718794E-05  6.88253976E-06
  2818.38306  7.04450358E-05  6.32144929E-06
  2884.03149  6.73467657E-05  5.80460801E-06
  2951.20923  6.4374799E-05  5.32880995E-06
  3019.9519  6.15252793E-05  4.89110153E-06
  3090.29565  5.8794285E-05  4.48832134E-06
  3162.27759  5.61781962E-05  4.11801602E-06
  3235.93652  5.36723819E-05  3.77735114E-06
  3311.31128  5.12742263E-05  3.46435081E-06
  3388.44189  4.89783233E-05  3.17653712E-06
  3467.36865  4.67820391E-05  2.9122009E-06
  3548.13403  4.46809718E-05  2.66934853E-06
  3630.78076  4.26717052E-05  2.44629996E-06
  3715.35254  4.07504776E-05  2.2414888E-06
  3801.89429  3.89135821E-05  2.0534851E-06
  3890.45166  3.71580281E-05  1.88094214E-06
  3981.07202  3.54798613E-05  1.72256171E-06
  4073.80298  3.38763966E-05  1.57728687E-06
  4168.69385  3.23441782E-05  1.44405715E-06
  4265.79541  3.08803865E-05  1.32195248E-06
  4365.15869  2.94820929E-05  1.21000926E-06
  4466.83594  2.81464399E-05  1.10741394E-06
  4570.88232  2.68707608E-05  1.01339685E-06
  4677.35156  2.56524218E-05  9.27247754E-07
  4786.30127  2.44890307E-05  8.48330274E-07
  4897.78857  2.33779811E-05  7.76058926E-07
  5011.87256  2.23172119E-05  7.09876417E-07
  5128.61377  2.13042822E-05  6.49239439E-07
  5248.0752  2.03372128E-05  5.93743266E-07
  5370.31836  1.94139193E-05  5.42939688E-07
  5495.40918  1.85324934E-05  4.96432904E-07
  5623.41357  1.76910344E-05  4.53865624E-07
  5754.3999  1.68876868E-05  4.14910687E-07
  5888.43701  1.61208245E-05  3.79271683E-07
  6025.59619  1.53887868E-05  3.46656606E-07
  6165.9502  1.46900356E-05  3.16823019E-07
  6309.57373  1.40230222E-05  2.89541333E-07
  6456.54248  1.3386295E-05  2.64569479E-07
  6606.93506  1.27785361E-05  2.41748097E-07
  6760.83057  1.21984349E-05  2.20872934E-07
  6918.31006  1.16447118E-05  2.01786762E-07
  7079.45801  1.11161744E-05  1.84337594E-07
  7244.35986  1.06116613E-05  1.68384815E-07
  7413.10303  1.01300921E-05  1.53802901E-07
  7585.77637  9.67045162E-06  1.4047373E-07
  7762.47168  9.23173047E-06  1.28292712E-07
  7943.2832  8.81294E-06  1.171611E-07
  8128.30566  8.41323345E-06  1.06988459E-07
  8317.63867  8.0316795E-06  9.76942403E-08
  8511.38086  7.66751327E-06  8.9201329E-08
  8709.63672  7.31988257E-06  8.14431402E-08
  8912.50977  6.98808526E-06  7.43558175E-08
  9120.1084  6.67135328E-06  6.78823753E-08
  9332.54297  6.36902541E-06  6.19698639E-08
  9549.92676  6.08043774E-06  5.65701086E-08
  9772.37305  5.80498181E-06  5.1638601E-08
  10000.001  5.54204007E-06  4.71355328E-08
